#time (h), cphase (deg), error (deg)
0.087796 -80.521900 3.027296
0.090875 -73.460000 2.926292
0.093954 -75.425800 2.898805
0.097033 -72.208600 2.862257
0.100112 -81.221800 2.871699
0.103192 -80.956000 2.794765
0.106271 -76.207500 2.908930
0.109350 -75.364100 2.672670
0.112429 -80.049900 2.793216
0.115508 -74.594600 2.886700
0.118587 -77.586100 3.027390
0.121667 -79.943100 2.969087
0.124746 -76.326500 2.918522
0.127825 -75.892300 2.863801
0.130904 -78.220100 2.917366
0.133983 -75.634100 2.859278
0.137063 -75.120800 2.963359
0.140142 -76.061600 2.804310
0.143221 -73.387700 2.910097
0.146300 -78.141400 2.924719
0.149379 -77.495900 2.967100
0.152458 -78.173700 2.717436
0.155537 -72.382700 3.024779
0.158617 -76.152700 3.041896
0.161696 -77.957800 3.003456
0.164775 -81.264000 3.045042
0.167854 -75.422600 2.904931
0.170933 -81.875200 2.805170
0.174012 -79.715700 2.987745
0.177092 -75.825900 2.956676
0.180171 -75.948200 2.902151
0.183250 -74.829100 2.853448
0.186329 -73.786000 3.064893
0.189408 -79.287900 2.904629
0.192488 -82.243800 2.811059
0.195567 -76.437400 2.735731
0.198646 -76.047300 2.767216
0.201725 -79.110300 2.937216
0.204804 -79.321600 3.135199
0.207883 -75.168500 3.003141
0.210962 -77.680400 2.985739
0.214042 -86.746700 3.058628
0.217121 -78.244900 3.152346
0.220200 -78.308200 2.831689
0.223279 -82.467300 3.155015
0.226358 -75.971100 2.958203
0.229437 -74.680200 3.085232
0.232517 -79.802800 3.023020
0.235596 -78.305900 3.020880
0.238675 -81.281300 2.886844
0.241754 -78.030000 2.987508
0.244833 -77.830900 3.036300
0.247913 -81.046000 3.088795
0.250992 -80.419500 3.003070
0.254071 -78.475200 3.106897
0.257150 -78.160000 3.210488
0.260229 -76.363200 2.996596
0.263308 -79.428800 2.914406
0.266387 -79.073100 2.920804
0.269467 -73.858900 3.060387
0.272546 -83.132000 3.018653
0.275625 -77.132200 2.998308
0.278704 -81.792000 3.057851
0.281783 -80.811700 3.344160
0.284863 -74.834700 3.138087
0.287942 -74.319100 3.179775
0.291021 -79.924600 3.004526
0.294100 -80.086000 3.244487
0.297179 -74.674100 3.048252
0.300258 -82.034300 3.431884
0.303337 -80.030400 3.294417
0.306417 -83.971200 2.980000
0.309496 -77.301700 3.069793
0.312575 -82.303000 3.178975
0.315654 -82.226800 3.299636
0.318733 -83.781600 3.239377
0.321813 -81.082300 3.008248
0.324892 -81.334100 3.228623
0.327971 -79.366800 3.021279
0.331050 -81.852900 3.134454
0.334129 -81.867100 2.971673
0.337208 -85.036700 3.185029
0.340288 -80.750200 3.195691
0.343367 -79.218700 3.093845
0.346446 -83.035600 3.073336
0.349525 -72.963800 3.080353
0.352604 -80.176300 3.236870
0.355683 -83.775900 3.236758
0.358762 -78.224700 3.199550
0.361842 -80.409300 3.132222
0.364921 -74.181500 3.302789
0.368000 -80.441900 3.283439
0.371079 -85.661300 3.124201
0.374158 -76.018900 3.144095
0.377238 -81.751500 3.062993
0.380317 -82.850200 3.460270
0.383396 -83.323900 3.112168
0.386475 -80.389900 3.327093
0.389554 -77.999700 3.133720
0.392633 -86.302200 3.264773
0.395713 -82.056000 3.280174
0.398792 -81.121600 3.177422
0.401871 -84.727400 3.244158
0.404950 -81.100200 3.168045
0.408029 -82.763200 3.177383
0.411108 -85.631000 3.479522
0.414187 -85.833200 3.384882
0.417267 -91.517900 3.288595
0.420346 -79.945500 3.359396
0.423425 -83.935800 3.330596
0.426504 -80.612000 3.193114
0.429583 -85.100600 3.321634
0.432663 -78.120300 3.186888
0.435742 -91.532500 3.307357
0.438821 -91.296300 3.332943
0.441900 -77.290300 3.164284
0.444979 -86.191200 3.053000
0.448058 -83.082800 3.182145
0.451138 -80.675000 3.398336
0.454217 -85.160000 3.352928
0.457296 -82.746900 3.231366
0.460375 -80.330900 3.260309
0.463454 -82.900200 3.357215
0.466533 -85.287500 3.311680
0.469612 -83.683400 3.181551
0.472692 -79.334100 3.271682
0.475771 -82.820400 3.274779
0.478850 -86.976500 3.476738
0.481929 -81.981700 3.208122
0.485008 -87.484800 3.217089
0.488088 -82.435600 3.288940
0.491167 -82.981900 3.420739
0.494246 -84.864700 3.549281
0.497325 -80.698500 3.277864
0.500404 -87.439500 3.440881
0.503483 -84.020000 3.359953
0.506563 -83.497100 3.223880
0.509642 -84.625500 3.360596
0.512721 -80.339600 3.653840
0.515800 -82.346700 3.305796
0.518879 -79.380500 3.277697
0.521958 -77.109700 3.463543
0.525038 -87.603900 3.433419
0.528117 -84.529800 3.244531
0.531196 -82.532300 3.492156
0.534275 -75.681400 3.227035
0.537354 -82.102300 3.411015
0.540433 -81.296600 3.262478
0.543512 -89.157300 3.421854
0.546592 -83.050100 3.421567
0.549671 -87.114100 3.348783
0.552750 -83.240900 3.381225
0.555829 -89.148000 3.583239
0.558908 -86.596500 3.418796
0.561987 -85.066300 3.382802
0.565067 -85.085800 3.434657
0.568146 -84.686600 3.327930
0.571225 -84.628500 3.424827
0.574304 -85.318200 3.372359
0.577383 -85.249500 3.306641
0.580462 -82.082200 3.364153
0.583542 -89.593600 3.259094
0.586621 -85.777000 3.482645
0.589700 -81.228100 3.393727
0.592779 -81.799200 3.465028
0.595858 -81.487100 3.594878
0.598938 -92.822900 3.305171
0.602017 -87.231300 3.325726
0.605096 -83.439600 3.597948
0.608175 -90.753400 3.409412
0.611254 -78.290900 3.665433
0.614333 -88.070400 3.670468
0.617413 -86.623000 3.695309
0.620492 -85.012500 3.536268
0.623571 -91.501600 3.295575
0.626650 -84.782700 3.733117
0.629729 -78.618400 3.365856
0.632808 -92.458200 3.628073
0.635888 -93.666600 3.538632
0.638967 -85.535900 3.305341
0.642046 -79.922800 3.331344
0.645125 -91.785800 3.464949
0.648204 -93.994700 3.392240
0.651283 -84.629700 3.635405
0.654362 -85.741700 3.444275
0.657442 -79.003800 3.650745
0.660521 -83.397600 3.399104
0.663600 -87.291700 3.453757
0.666679 -85.080200 3.435053
0.669758 -88.529200 3.629220
0.672837 -83.990700 3.535876
0.675917 -87.818100 3.526743
0.678996 -85.335700 3.615153
0.682075 -91.534700 3.563787
0.685154 -82.150600 3.630579
0.688233 -90.285100 3.511286
0.691312 -91.902200 3.649732
0.694392 -91.366400 3.757077
0.697471 -88.416100 3.786250
0.700550 -87.988000 3.565397
0.703629 -83.087600 3.726292
0.706708 -85.383200 3.637708
0.709788 -92.410900 3.688192
0.712867 -95.725200 3.624922
0.715946 -88.987300 3.363773
0.719025 -94.721600 3.726347
0.722104 -89.278800 3.708279
0.725183 -87.531700 3.650827
0.728263 -91.106800 3.315984
0.731342 -87.100100 3.551851
0.734421 -95.878100 3.658085
0.737500 -85.011000 3.598666
0.740579 -92.676900 3.536033
0.743658 -91.974200 3.746307
0.746738 -85.641000 3.585967
0.749817 -95.720700 3.586929
0.752896 -82.466900 3.766571
0.755975 -89.563700 3.496224
0.759054 -80.526500 3.574985
0.762133 -92.699900 3.778471
0.765212 -90.492200 3.618276
0.768292 -87.616900 3.627586
0.771371 -98.484000 3.786552
0.774450 -100.020800 3.682311
0.777529 -83.633800 3.602784
0.780608 -92.886000 3.818793
0.783687 -90.224600 3.745134
0.786767 -86.105000 3.865037
0.789846 -91.487900 3.835324
0.792925 -90.962200 3.683173
0.796004 -89.834800 3.722733
0.799083 -94.615400 3.774379
0.802163 -89.591600 3.811635
0.805242 -91.034200 3.890415
0.808321 -92.416200 3.776569
0.811400 -91.007400 3.861045
0.814479 -85.843400 3.709405
0.817558 -88.087100 3.606717
0.820638 -87.905500 3.684112
0.823717 -96.017300 3.893028
0.826796 -90.241400 3.683108
0.829875 -90.715100 3.765884
0.832954 -81.675800 3.849697
0.836033 -94.091300 3.848144
0.839113 -91.091600 3.441932
0.842192 -91.737300 3.687810
0.845271 -89.185300 3.911329
0.848350 -94.704500 3.779296
0.851429 -85.622000 4.073080
0.854508 -90.563600 3.703843
0.857587 -94.692400 3.696514
0.860667 -87.942100 3.848317
0.863746 -97.217800 3.950140
0.866825 -85.900200 4.257262
0.869904 -91.688400 3.766854
0.872983 -97.730600 3.858318
0.876062 -95.108000 4.148660
0.879142 -91.276700 3.738071
0.882221 -85.523400 3.764707
0.885300 -83.083400 3.759055
0.888379 -93.155700 3.867582
0.891458 -96.388700 3.848075
0.894537 -94.098800 3.819733
0.897617 -95.719600 3.890048
0.900696 -92.899300 3.868037
0.903775 -93.519500 3.980889
0.906854 -92.592800 3.925033
0.909933 -83.425600 3.902787
0.913013 -94.134500 3.942640
0.916092 -90.187400 4.038204
0.919171 -92.740900 4.230959
0.922250 -86.553700 4.052691
0.925329 -94.127300 4.057765
0.928408 -90.528300 4.052357
0.931488 -88.034500 4.069713
0.934567 -89.682700 4.095273
0.937646 -88.990200 3.860827
0.940725 -89.546200 3.843850
0.943804 -98.051300 3.933648
0.946883 -89.465400 3.680241
0.949963 -96.722200 4.061838
0.953042 -97.792300 3.940225
0.956121 -87.116900 3.793106
0.959200 -101.174400 3.777282
0.962279 -89.634800 4.145362
0.965358 -86.599700 4.206080
0.968437 -96.329700 3.875041
0.971517 -90.668100 3.811711
0.974596 -84.380500 4.064383
0.977675 -89.629600 4.066669
0.980754 -91.945900 3.800076
0.983833 -95.079800 4.147908
0.986912 -92.628400 3.878300
0.989992 -94.345700 3.904686
0.993071 -89.508900 4.116706
0.996150 -90.151500 4.045338
0.999229 -96.603700 3.938257
1.002308 -95.930600 3.828062
1.005388 -95.518300 4.062769
1.008467 -92.768300 3.883054
1.011546 -99.576100 4.005249
1.014625 -90.665000 3.928454
1.017704 -97.716700 3.897716
1.020783 -99.886600 3.787636
1.023862 -93.996600 4.162053
1.026942 -86.207300 4.161523
1.030021 -87.741100 3.772254
1.033100 -89.026300 3.878761
1.036179 -95.941000 4.104781
1.039258 -92.162500 3.984909
1.042337 -92.986800 3.934739
1.045417 -94.178300 4.092887
1.048496 -92.110700 4.253608
1.051575 -91.818400 4.131534
1.054654 -99.975500 4.241912
1.057733 -96.325800 4.343031
1.060812 -95.177200 4.023968
1.063892 -96.533900 4.255338
1.066971 -94.785700 4.150646
1.070050 -98.738100 4.359747
1.073129 -96.845300 4.027340
1.076208 -102.645800 4.323997
1.079287 -94.591300 4.167243
1.082367 -88.454700 4.387831
1.085446 -99.598000 4.175952
1.088525 -94.137900 4.221759
1.091604 -99.244900 4.380294
1.094683 -94.140900 3.888319
1.097762 -92.068200 4.190089
1.100842 -101.039300 4.156411
1.103921 -95.808300 4.060984
1.107000 -95.063400 4.571536
1.110079 -103.216200 4.006592
1.113158 -98.103400 4.244907
1.116237 -98.419900 3.963259
1.119317 -100.507600 3.948921
1.122396 -94.248600 4.318124
1.125475 -98.273800 4.195130
1.128554 -92.202900 4.295129
1.131633 -100.817800 4.210634
1.134713 -94.956800 4.032280
1.137792 -89.287500 4.367551
1.140871 -97.559400 4.278880
1.143950 -104.935800 4.279778
1.147029 -93.577000 4.042734
1.150108 -93.709500 4.080472
1.153188 -90.152000 4.141820
1.156267 -97.328200 4.247408
1.159346 -102.238000 4.314239
1.162425 -98.786400 4.141173
1.165504 -97.733800 4.104199
1.168583 -97.056400 4.152614
1.171663 -95.307700 4.360430
1.174742 -96.441400 4.047913
1.177821 -99.196900 4.267140
1.180900 -108.579200 4.503723
1.183979 -97.098000 4.386367
1.187058 -96.085500 4.095480
1.190138 -95.050200 4.311694
1.193217 -94.072000 4.025037
1.196296 -99.887400 4.101856
1.199375 -101.255900 4.113002
1.202454 -94.623400 4.416658
1.205533 -97.424500 4.361274
1.208613 -98.835800 4.112828
1.211692 -104.137900 4.250990
1.214771 -101.067200 4.244174
1.217850 -99.773500 4.476348
1.220929 -97.133700 3.953997
1.224008 -98.365500 4.405750
1.227088 -97.401100 4.049840
1.230167 -94.592900 4.218222
1.233246 -97.998400 4.465929
1.236325 -103.692900 4.583130
1.239404 -108.582600 4.349516
1.242483 -95.502400 4.501335
1.245562 -95.383500 4.283265
1.248642 -99.805800 4.293373
1.251721 -98.421000 4.470073
1.254800 -97.653300 3.995180
1.257879 -92.191700 4.270140
1.260958 -94.220300 4.533922
1.264037 -87.220000 4.064584
1.267117 -96.437100 4.258398
1.270196 -105.234600 4.313575
1.273275 -103.060500 4.457968
1.276354 -103.877600 4.314786
1.279433 -99.495600 4.218048
1.282512 -97.953200 4.169709
1.285592 -100.093800 4.262926
1.288671 -104.058900 4.527642
1.291750 -97.938200 4.327714
1.294829 -108.508000 4.212776
1.297908 -106.790200 4.213181
1.300987 -98.772600 4.348529
1.304067 -99.052700 4.575464
1.307146 -102.439000 4.095574
1.310225 -107.666900 4.164406
1.313304 -102.316100 4.330357
1.316383 -104.328600 4.298995
1.319462 -91.777800 4.136815
1.322542 -94.916400 4.412775
1.325621 -98.455000 4.611093
1.328700 -101.966900 4.411452
1.331779 -97.565700 3.950863
1.334858 -106.280200 4.342914
1.337938 -98.423300 4.142542
1.341017 -96.954400 4.308110
1.344096 -104.479600 4.291427
1.347175 -98.457800 5.069206
1.350254 -97.265900 4.218080
1.353333 -95.899700 4.701888
1.356413 -103.441300 4.294074
1.359492 -103.613500 4.202604
1.362571 -107.051800 4.561526
1.365650 -101.629000 4.309753
1.368729 -99.314800 4.290045
1.371808 -103.338000 4.259067
1.374888 -95.258500 4.735340
1.377967 -102.369800 4.568884
1.381046 -101.607900 4.464620
1.384125 -107.976100 4.702677
1.387204 -96.196100 4.527120
1.390283 -107.203000 4.279715
1.393363 -105.034400 4.856394
1.396442 -106.053600 4.537194
1.399521 -105.434900 4.383553
1.402600 -101.537800 4.292430
1.405679 -96.827100 4.562114
1.408758 -114.625800 4.533029
1.411838 -105.535700 4.240419
1.414917 -99.690500 4.451890
1.417996 -99.485700 4.983173
1.421075 -103.508300 4.451337
1.424154 -99.830100 4.706715
1.427233 -102.361600 4.438365
1.430313 -102.756600 4.584036
1.433392 -104.737300 4.441165
1.436471 -106.146000 4.294197
1.439550 -104.878400 4.583488
1.442629 -102.126400 4.539316
1.445708 -99.061100 4.616782
1.448787 -102.821600 4.505554
1.451867 -106.574200 4.667511
1.454946 -106.156700 4.862605
1.458025 -107.186600 4.304526
1.461104 -99.313300 4.694432
1.464183 -106.641500 4.962528
1.467262 -97.493400 4.593108
1.470342 -101.478300 4.512836
1.473421 -111.676000 4.665808
1.476500 -103.422400 4.332100
1.479579 -109.530400 4.397015
1.482658 -107.070700 4.316304
1.485737 -93.165700 4.356297
1.488817 -106.572600 4.425996
1.491896 -99.887000 4.798847
1.494975 -104.152500 4.893727
1.498054 -105.864700 4.521954
1.501133 -105.739700 4.412225
1.504212 -106.214300 4.578451
1.507292 -98.829000 4.550904
1.510371 -106.642700 4.195002
1.513450 -101.256700 4.348941
1.516529 -103.112100 4.613129
1.519608 -114.313400 4.542488
1.522687 -104.102500 4.942135
1.525767 -109.012400 4.668508
1.528846 -105.932800 4.820217
1.531925 -109.846700 4.755314
1.535004 -107.601800 4.532361
1.538083 -106.584700 4.644148
1.541162 -104.097200 4.525427
1.544242 -105.092400 4.772934
1.547321 -107.054400 4.332783
1.550400 -108.960000 4.791195
1.553479 -98.990000 4.147664
1.556558 -109.497500 4.812085
1.559638 -103.199500 4.419434
1.562717 -101.996900 4.454168
1.565796 -102.487000 4.745009
1.568875 -106.615900 4.136302
1.571954 -101.668400 4.720857
1.575033 -113.661300 4.628470
1.578113 -106.146600 4.766852
1.581192 -112.698300 4.388332
1.584271 -105.211100 4.678065
1.587350 -108.190200 4.734310
1.590429 -104.851600 4.895487
1.593508 -107.475100 4.647645
1.596588 -106.022300 4.724211
1.599667 -105.110400 4.616164
1.602746 -108.388500 4.678679
1.605825 -107.813200 4.543295
1.608904 -106.478700 4.620386
1.611983 -103.485800 4.403889
1.615063 -101.684300 4.617424
1.618142 -104.699200 4.620298
1.621221 -108.739300 4.587420
1.624300 -117.228700 4.865257
1.627379 -106.535400 4.662719
1.630458 -113.443300 4.869994
1.633538 -105.211000 4.773074
1.636617 -105.371000 4.878211
1.639696 -103.145000 4.742081
1.642775 -107.976100 4.910450
1.645854 -108.664200 4.864966
1.648933 -108.047700 4.575584
1.652013 -107.615300 4.904584
1.655092 -107.465900 4.848504
1.658171 -111.248800 4.797068
1.661250 -112.950600 5.063246
1.664329 -112.371000 5.464034
1.667408 -102.353500 4.512461
1.670487 -97.485600 4.852896
1.673567 -107.024900 4.748322
1.676646 -104.385400 4.737160
1.679725 -98.148000 5.120968
1.682804 -107.809500 4.612256
1.685883 -109.760000 4.618496
1.688962 -108.602100 4.564694
1.692042 -100.399700 4.814661
1.695121 -102.937900 4.906022
1.698200 -107.185800 4.785937
1.701279 -115.257900 5.115445
1.704358 -107.769700 4.620900
1.707437 -113.325400 4.517602
1.710517 -111.560000 4.778807
1.713596 -104.353700 5.086726
1.716675 -111.834700 4.485080
1.719754 -98.649100 4.749866
1.722833 -103.956000 4.845374
1.725912 -112.224100 4.414015
1.728992 -108.123200 4.902918
1.732071 -108.993400 4.385829
1.735150 -109.410700 4.630587
1.738229 -106.699900 4.573120
1.741308 -110.775500 4.891980
1.744387 -110.435400 4.975354
1.747467 -101.319500 5.124219
1.750546 -104.426400 4.573064
1.753625 -106.079300 4.562597
1.756704 -108.836000 5.016587
1.759783 -113.483200 4.854122
1.762862 -108.201100 4.948049
1.765942 -110.432000 4.994623
1.769021 -103.515800 4.865146
1.772100 -107.254700 4.638336
1.775179 -104.419800 5.057970
1.778258 -119.721100 4.842695
1.781338 -109.109500 4.978756
1.784417 -114.187700 4.988967
1.787496 -96.862500 4.616756
1.790575 -105.627300 4.917901
1.793654 -116.447200 4.766609
1.796733 -113.274200 5.047904
1.799813 -119.160300 4.930565
1.802892 -117.579800 4.676688
1.805971 -113.591800 4.676101
1.809050 -106.779900 4.948251
1.812129 -107.854800 4.568039
1.815208 -112.827000 4.365872
1.818288 -107.504700 5.010069
1.821367 -114.408700 4.853621
1.824446 -110.391700 5.328812
1.827525 -106.370000 4.787848
1.830604 -113.778800 4.661956
1.833683 -100.877500 4.774779
1.836763 -106.456100 4.841077
1.839842 -106.462500 4.961237
1.842921 -117.140900 4.849705
1.846000 -106.713500 4.866882
1.849079 -116.675200 4.747116
1.852158 -107.114300 4.693399
1.855238 -119.163200 4.741315
1.858317 -117.519900 4.841687
1.861396 -116.856700 4.611677
1.864475 -112.515200 4.742901
1.867554 -111.445300 5.221840
1.870633 -113.480900 4.771678
1.873712 -108.351900 4.997835
1.876792 -115.444100 4.986908
1.879871 -110.251000 5.191687
1.882950 -105.332400 5.003769
1.886029 -108.786700 4.575345
1.889108 -116.580500 4.935767
1.892187 -113.865200 4.931644
1.895267 -102.359000 5.059240
1.898346 -115.202200 5.018647
1.901425 -107.857100 4.552549
1.904504 -111.323900 4.887688
1.907583 -120.891100 4.523439
1.910662 -114.799800 4.892178
1.913742 -115.434400 4.688615
1.916821 -112.543100 4.943730
1.919900 -109.146700 5.096588
1.922979 -120.179400 4.889440
1.926058 -107.514600 4.786300
1.929137 -115.232500 4.790646
1.932217 -115.058500 5.657512
1.935296 -119.779600 4.948858
1.938375 -119.542000 4.904475
1.941454 -113.549100 4.683322
1.944533 -112.421500 4.719479
1.947612 -110.701000 5.236651
1.950692 -118.966200 4.538749
1.953771 -114.852700 4.977705
1.956850 -115.834600 5.018817
1.959929 -118.515500 5.219200
1.963008 -116.494200 4.647843
1.966087 -114.538900 5.176534
1.969167 -111.640400 5.173327
1.972246 -111.139100 4.548813
1.975325 -120.297300 4.868888
1.978404 -115.801800 4.752076
1.981483 -109.774400 4.806056
1.984563 -118.247600 4.874948
1.987642 -122.526600 4.976228
1.990721 -115.953400 4.989839
1.993800 -119.807300 4.531219
1.996879 -107.798600 4.764246
1.999958 -115.149700 4.925557
2.003038 -110.420800 4.903939
2.006117 -119.020200 5.046876
2.009196 -108.738300 4.894476
2.012275 -110.747500 4.832678
2.015354 -116.705100 4.766591
2.018433 -120.801700 4.964756
2.021513 -115.714900 4.889855
2.024592 -112.310200 4.662001
2.027671 -114.313400 4.428098
2.030750 -117.212700 5.101915
2.033829 -116.180700 4.758089
2.036908 -111.687500 5.021880
2.039988 -115.427100 4.904999
2.043067 -126.962100 5.317282
2.046146 -119.974300 5.392638
2.049225 -117.993400 4.930585
2.052304 -114.786200 4.720298
2.055383 -114.241600 4.790074
2.058463 -125.043300 5.332839
2.061542 -116.341700 4.939818
2.064621 -116.410200 4.892615
2.067700 -116.806300 4.973123
2.070779 -120.272500 4.898491
2.073858 -114.213900 5.011347
2.076938 -117.257700 5.019699
2.080017 -107.111400 5.237343
2.083096 -111.840300 4.646214
2.086175 -115.394400 5.612564
2.089254 -116.836100 5.118768
2.092333 -110.005900 5.322191
2.095413 -117.916900 4.775389
2.098492 -116.801900 4.972157
2.101571 -120.505400 4.592435
2.104650 -113.820300 5.052963
2.107729 -125.946100 5.093754
2.110808 -120.091100 4.806661
2.113888 -115.593700 4.975583
2.116967 -127.328100 5.014000
2.120046 -112.124000 4.929067
2.123125 -122.093300 4.772649
2.126204 -125.168600 5.098438
2.129283 -118.803800 4.727081
2.132363 -109.122900 5.068778
2.135442 -107.209200 4.958544
2.138521 -121.914100 5.124175
2.141600 -124.167500 5.195803
2.144679 -116.094500 4.722048
2.147758 -123.576800 5.179034
2.150838 -120.965900 4.918205
2.153917 -123.327500 4.935344
2.156996 -108.662300 5.209499
2.160075 -117.834600 4.941702
2.163154 -108.951000 4.702865
2.166233 -120.087500 4.864661
2.169313 -119.550700 4.971182
2.172392 -115.929600 4.930609
