#time (h), cphase (deg), error (deg)
0.087796 -29.485400 4.316915
0.090875 -31.454800 4.612771
0.093954 -35.332600 4.568102
0.097033 -36.132000 4.555262
0.100112 -26.735900 5.406913
0.103192 -40.937700 5.107082
0.106271 -36.250100 4.970781
0.109350 -43.844100 5.003392
0.112429 -44.085500 4.823618
0.115508 -41.455400 5.505603
0.118587 -44.770000 4.883432
0.121667 -39.598000 4.723649
0.124746 -45.497900 5.143384
0.127825 -44.967400 5.327225
0.130904 -44.756900 4.918800
0.133983 -57.605900 5.877473
0.137063 -47.766800 5.239748
0.140142 -69.170300 5.511168
0.143221 -57.355700 5.813878
0.146300 -59.536700 6.121778
0.149379 -56.217500 6.257241
0.152458 -65.254700 6.484690
0.155537 -61.055000 6.644170
0.158617 -67.215700 6.641116
0.161696 -82.473200 8.564200
0.164775 -73.197200 7.955080
0.167854 -65.401700 10.553343
0.170933 -69.458700 7.481907
0.174012 -88.056000 9.206935
0.177092 -85.467200 11.852966
0.180171 -76.968000 10.116370
0.183250 -86.660600 11.878713
0.186329 -97.690600 7.604612
0.189408 -90.105000 16.085147
0.192488 -86.474800 8.378016
0.195567 -58.565700 11.494940
0.198646 -78.972400 7.096130
0.201725 -76.743900 9.167005
0.204804 -76.437900 10.402118
0.207883 -65.463300 12.014003
0.210962 -80.956800 12.517514
0.214042 -67.121000 11.139643
0.217121 -65.266100 7.759582
0.220200 -79.284200 8.085290
0.223279 -61.258000 7.804884
0.226358 -74.076300 7.985664
0.229437 -56.959600 7.266667
0.232517 -64.021900 7.663579
0.235596 -62.385800 7.195847
0.238675 -66.221400 7.656463
0.241754 -63.919900 6.333694
0.244833 -49.471800 7.335748
0.247913 -48.751400 8.094831
0.250992 -50.912600 5.626356
0.254071 -47.581000 6.706516
0.257150 -47.548400 5.408653
0.260229 -46.051700 7.189364
0.263308 -40.678500 6.259360
0.266387 -39.356800 6.008966
0.269467 -45.679600 6.683219
0.272546 -33.082700 7.289458
0.275625 -35.314300 6.772268
0.278704 -30.026000 7.280367
0.281783 -32.533700 6.353986
0.284863 -26.087000 7.120961
0.287942 -32.426200 5.643943
0.291021 -21.904500 7.527400
0.294100 -27.251900 6.267483
0.297179 -27.161100 6.282839
0.300258 -24.986700 6.148839
0.303337 -36.198500 7.140938
0.306417 -23.988300 5.806020
0.309496 -29.165400 7.328616
0.312575 -29.487000 6.159081
0.315654 -22.762900 7.850031
0.318733 -15.320700 7.417854
0.321813 -18.767900 6.897606
0.324892 -28.904600 7.418421
0.327971 -35.152300 8.024803
0.331050 -45.265800 9.120668
0.334129 -59.678900 7.930754
0.337208 -36.250400 8.752386
0.340288 -31.289000 7.129484
0.343367 -48.920800 7.150926
0.346446 -43.269100 6.433033
0.349525 -43.926200 6.586766
0.352604 -49.688300 5.119681
0.355683 -45.416000 5.890869
0.358762 -47.789400 4.905377
0.361842 -49.897400 5.039698
0.364921 -47.084600 5.000948
0.368000 -47.680500 4.156235
0.371079 -50.940400 3.764148
0.374158 -60.042900 3.957753
0.377238 -48.003100 3.964452
0.380317 -52.304500 4.203053
0.383396 -54.293700 3.913107
0.386475 -47.884500 3.709803
0.389554 -54.944800 4.037070
0.392633 -49.876600 4.493496
0.395713 -52.771100 4.321463
0.398792 -58.729000 3.952370
0.401871 -53.691100 4.990056
0.404950 -58.172900 4.099829
0.408029 -48.706500 3.901300
0.411108 -49.292000 4.660486
0.414187 -57.555100 4.625538
0.417267 -60.795200 4.185903
0.420346 -62.042500 4.464184
0.423425 -63.481300 4.216312
0.426504 -55.236400 4.454083
0.429583 -58.932200 4.359092
0.432663 -52.696700 3.720078
0.435742 -44.141900 4.129413
0.438821 -46.090100 4.356053
0.441900 -46.009800 3.757602
0.444979 -48.933900 4.111728
0.448058 -43.963300 3.910305
0.451138 -46.817700 3.947834
0.454217 -47.115500 4.121961
0.457296 -45.472100 3.760076
0.460375 -43.727900 3.844506
0.463454 -39.511800 3.686270
0.466533 -37.291900 3.226429
0.469612 -43.739200 3.336890
0.472692 -45.716000 3.404829
0.475771 -43.306100 3.393634
0.478850 -35.181100 3.581123
0.481929 -42.710900 3.346924
0.485008 -37.700400 3.382028
0.488088 -40.437900 3.039204
0.491167 -45.356800 3.214629
0.494246 -43.052500 3.126534
0.497325 -36.266900 3.477998
0.500404 -45.721100 3.360022
0.503483 -44.021800 3.714437
0.506563 -43.858900 3.823013
0.509642 -36.400600 3.638919
0.512721 -38.787400 3.336830
0.515800 -30.490900 3.622855
0.518879 -30.682000 3.426025
0.521958 -39.667800 3.868183
0.525038 -44.385400 3.685717
0.528117 -32.520100 4.050969
0.531196 -32.502100 4.132331
0.534275 -34.042100 4.806663
0.537354 -26.287300 4.771505
0.540433 -36.049800 4.459595
0.543512 -36.938800 4.131787
0.546592 -27.612900 4.250479
0.549671 -37.506300 4.707166
0.552750 -31.449800 5.106825
0.555829 -36.154200 4.558874
0.558908 -39.149500 5.208140
0.561987 -44.500800 5.330267
0.565067 -34.846400 5.282925
0.568146 -42.608700 5.756171
0.571225 -40.365800 5.595283
0.574304 -28.740000 5.900050
0.577383 -47.114700 6.414068
0.580462 -52.584100 7.482763
0.583542 -49.696400 6.090777
0.586621 -34.594200 7.096518
0.589700 -39.693600 7.175506
0.592779 -42.442400 7.365471
0.595858 -51.141300 7.376271
0.598938 -37.985300 6.068695
0.602017 -51.200000 8.233615
0.605096 -32.518500 6.820734
0.608175 -33.668800 6.636880
0.611254 -47.544600 8.893361
0.614333 -51.598600 8.262392
0.617413 -32.828300 6.472770
0.620492 -42.871200 6.873269
0.623571 -40.662700 7.321627
0.626650 -21.904900 6.600333
0.629729 -40.068700 8.019766
0.632808 -48.036300 7.943386
0.635888 -32.038200 11.314040
0.638967 -33.660600 8.079968
0.642046 -40.546500 6.798283
0.645125 -27.797400 7.721695
0.648204 -36.326400 5.585119
0.651283 -26.937600 7.291450
0.654362 -47.640400 6.262297
0.657442 -46.777700 8.011925
0.660521 -42.698700 7.502277
0.663600 -21.691400 6.923766
0.666679 -25.260200 7.474878
0.669758 -36.596600 7.057589
0.672837 -48.343200 6.269892
0.675917 -25.644900 6.584380
0.678996 -31.875700 6.733603
0.682075 -9.378600 5.893971
0.685154 -22.581000 6.498806
0.688233 -24.847900 5.554744
0.691312 -20.210400 5.803698
0.694392 -26.880200 5.652394
0.697471 -27.141300 6.020662
0.700550 -8.998100 6.028487
0.703629 -22.666700 5.492640
0.706708 -22.577900 6.294472
0.709788 -13.698000 7.030892
0.712867 -15.474500 6.475154
0.715946 -12.415800 6.299394
0.719025 -11.063300 7.386729
0.722104 -4.217200 7.100727
0.725183 -4.220400 6.179392
0.728263 1.805000 7.493313
0.731342 9.369400 6.939062
0.734421 19.647400 6.920184
0.737500 5.600200 9.277768
0.740579 -1.009700 9.965219
0.743658 12.636300 9.728070
0.746738 22.861400 9.024139
0.749817 25.776600 7.289311
0.752896 21.997100 8.000855
0.755975 4.934600 12.467225
0.759054 3.110900 11.188811
0.762133 -7.717400 8.461588
0.765212 -16.909400 9.628975
0.768292 -18.333500 10.058132
0.771371 -7.645000 9.299536
0.774450 -13.800400 9.235070
0.777529 -45.897500 11.174262
0.780608 -23.004600 11.380655
0.783687 -13.648500 8.819228
0.786767 -25.821100 13.910343
0.789846 -36.930700 8.913636
0.792925 -24.448400 10.386949
0.796004 -30.400500 7.583192
0.799083 -48.074500 10.302392
0.802163 -44.015700 7.939874
0.805242 -50.402500 8.478336
0.808321 -45.741000 6.870723
0.811400 -63.956800 8.577253
0.814479 -57.782500 6.300072
0.817558 -56.696400 6.817570
0.820638 -55.671100 7.619100
0.823717 -68.178800 6.854204
0.826796 -66.813600 6.887467
0.829875 -66.681000 7.773069
0.832954 -75.990400 8.924029
0.836033 -66.746100 8.026646
0.839113 -58.692400 7.491693
0.842192 -53.491400 7.037332
0.845271 -62.831900 8.028124
0.848350 -51.807700 7.322658
0.851429 -49.067000 6.849165
0.854508 -56.383800 8.964198
0.857587 -42.452700 9.076036
0.860667 -56.843400 8.331715
0.863746 -48.172500 6.322619
0.866825 -46.302000 8.028603
0.869904 -47.668300 9.155592
0.872983 -55.602900 9.313793
0.876062 -53.879200 7.811094
0.879142 -43.649600 7.280031
0.882221 -46.549700 6.522539
0.885300 -63.283900 5.890484
0.888379 -58.896300 6.430156
0.891458 -56.378500 5.686083
0.894537 -53.037200 6.165297
0.897617 -69.619800 5.266964
0.900696 -67.862600 6.456302
0.903775 -69.925900 6.224574
0.906854 -76.971000 6.743212
0.909933 -73.090600 6.126526
0.913013 -69.747600 5.707366
0.916092 -68.428200 5.498313
0.919171 -74.486300 5.578328
0.922250 -76.599500 5.979655
0.925329 -78.253700 5.344289
0.928408 -69.859900 6.101473
0.931488 -78.762300 5.774710
0.934567 -74.039500 6.029594
0.937646 -76.222600 5.620754
0.940725 -72.229400 6.006166
0.943804 -70.323300 5.127526
0.946883 -76.177900 6.043628
0.949963 -88.864500 5.062302
0.953042 -77.257900 4.989736
0.956121 -79.531000 4.817161
0.959200 -75.493000 5.186446
0.962279 -82.243900 5.489858
0.965358 -80.535700 4.561607
0.968437 -64.155200 4.664473
0.971517 -77.495100 4.637852
0.974596 -68.442700 4.715542
0.977675 -73.765100 4.799099
0.980754 -71.260600 4.504741
0.983833 -73.527200 5.619717
0.986912 -77.839700 5.419987
0.989992 -78.238100 5.130049
0.993071 -89.088700 4.741931
0.996150 -98.921500 4.851398
0.999229 -85.433400 4.719617
1.002308 -81.888000 4.570057
1.005388 -99.422200 4.478163
1.008467 -101.455900 4.362091
1.011546 -93.390900 4.898783
1.014625 -99.260200 4.621536
1.017704 -104.348500 4.763484
1.020783 -107.410600 4.575005
1.023862 -107.826300 4.151924
1.026942 -108.633300 4.276167
1.030021 -117.417300 4.458927
1.033100 -124.831800 4.654068
1.036179 -112.927400 4.100496
1.039258 -119.048800 4.581362
1.042337 -116.611000 4.662329
1.045417 -130.236700 5.207395
1.048496 -144.370500 5.894360
1.051575 -148.348000 5.506051
1.054654 -144.728000 5.590169
1.057733 -142.561100 5.628093
1.060812 -145.127200 6.101197
1.063892 -142.059400 5.759871
1.066971 -136.507300 5.485152
1.070050 -144.336200 6.546950
1.073129 -148.730200 6.341360
1.076208 -149.754200 5.368210
1.079287 -152.315200 6.359681
1.082367 -151.718200 6.127647
1.085446 -158.205300 8.425353
1.088525 -152.373600 7.217172
1.091604 -140.682800 7.232288
1.094683 -143.898200 5.912891
1.097762 -129.156200 6.283617
1.100842 -126.431500 5.990767
1.103921 -115.901900 5.775276
1.107000 -119.071400 5.989383
1.110079 -107.449800 4.611085
1.113158 -109.694400 5.302995
1.116237 -97.506700 4.848713
1.119317 -107.229300 5.065635
1.122396 -104.266300 4.479279
1.125475 -101.305600 4.137757
1.128554 -103.878400 4.124550
1.131633 -100.947300 4.356336
1.134713 -99.581800 4.207026
1.137792 -102.978700 4.601174
1.140871 -100.618000 4.336826
1.143950 -95.670300 4.189884
1.147029 -111.396200 4.185209
1.150108 -92.214700 3.936236
1.153188 -88.485500 4.203785
1.156267 -96.342600 4.838783
1.159346 -88.312800 4.751613
1.162425 -85.916600 4.227395
1.165504 -79.505600 4.620965
1.168583 -79.229600 4.620936
1.171663 -78.641900 5.077164
1.174742 -68.738900 4.824706
1.177821 -72.593400 4.299620
1.180900 -69.180900 4.242177
1.183979 -67.550600 3.931700
1.187058 -71.805200 3.880048
1.190138 -65.022200 3.767955
1.193217 -62.196800 3.794300
1.196296 -61.569800 3.605018
1.199375 -63.548500 4.023037
1.202454 -69.723200 3.922091
1.205533 -66.015800 3.796589
1.208613 -70.784100 4.252587
1.211692 -76.438900 4.244594
1.214771 -73.857100 4.193488
1.217850 -76.645100 4.330690
1.220929 -79.728000 4.377732
1.224008 -80.382300 4.299817
1.227088 -89.857100 4.226228
1.230167 -85.056800 5.619998
1.233246 -91.953600 5.134590
1.236325 -97.496900 5.704727
1.239404 -91.228900 5.302249
1.242483 -103.353100 5.283377
1.245562 -110.385900 6.332974
1.248642 -101.918100 6.270829
1.251721 -108.025300 5.493486
1.254800 -109.912300 6.309586
1.257879 -99.972800 6.015456
1.260958 -114.501000 7.222653
1.264037 -134.523300 6.560764
1.267117 -122.260800 7.137038
1.270196 -126.207200 7.293211
1.273275 -126.869700 8.445425
1.276354 -140.675200 7.074295
1.279433 -134.051000 7.253004
1.282512 -132.864400 7.127739
1.285592 -147.824600 10.079178
1.288671 -132.277200 7.825229
1.291750 -118.135700 7.837697
1.294829 -126.035300 8.786611
1.297908 -131.048200 10.114903
1.300987 -131.490200 8.444425
1.304067 -132.787300 7.743456
1.307146 -114.335900 8.000619
1.310225 -126.440700 8.375065
1.313304 -119.557100 8.196425
1.316383 -128.578200 6.911070
1.319462 -121.763700 7.073704
1.322542 -108.641000 6.667497
1.325621 -105.965200 10.713086
1.328700 -103.621100 6.887544
1.331779 -106.634000 6.911384
1.334858 -108.180300 8.039540
1.337938 -115.595000 7.620731
1.341017 -111.054600 6.777126
1.344096 -116.791100 5.949491
1.347175 -110.315700 7.538964
1.350254 -105.639500 5.955448
1.353333 -110.671700 5.445737
1.356413 -117.595600 6.139589
1.359492 -115.645200 5.202709
1.362571 -107.843100 6.196954
1.365650 -115.357400 5.589536
1.368729 -117.731000 6.404763
1.371808 -125.745800 6.541333
1.374888 -120.224000 6.933350
1.377967 -127.763700 7.171268
1.381046 -132.361300 6.355618
1.384125 -122.117800 6.641268
1.387204 -123.081300 7.624150
1.390283 -126.875400 6.120121
1.393363 -125.254000 7.017031
1.396442 -129.623600 7.728435
1.399521 -124.403000 6.968693
1.402600 -120.621800 7.360494
1.405679 -117.861000 6.243481
1.408758 -116.955800 7.375934
1.411838 -114.184600 6.433000
1.414917 -112.940900 7.522299
1.417996 -131.386000 5.592390
1.421075 -118.464900 6.697298
1.424154 -114.871000 6.713458
1.427233 -117.565100 7.597721
1.430313 -108.952900 5.532478
1.433392 -94.325200 6.975904
1.436471 -112.130500 6.144562
1.439550 -106.747400 6.044866
1.442629 -107.281100 6.311240
1.445708 -96.784100 7.393024
1.448787 -118.545000 6.614169
1.451867 -114.207200 7.573915
1.454946 -110.890000 7.494477
1.458025 -116.488900 8.440714
1.461104 -108.784200 10.994998
1.464183 -119.315100 9.364375
1.467262 -132.448400 12.626468
1.470342 -105.401200 10.131704
1.473421 -136.672000 11.591551
1.476500 -127.377600 14.022994
1.479579 -118.890500 20.471286
1.482658 -102.674100 10.381016
1.485737 -115.293600 9.994128
1.488817 -118.709900 9.675329
1.491896 -120.622400 13.659341
1.494975 -128.985200 15.048175
1.498054 -129.836600 10.735157
1.501133 -130.630200 10.230685
1.504212 -133.035100 7.753513
1.507292 -143.059000 8.613772
1.510371 -161.095100 8.824702
1.513450 -141.614400 7.034937
1.516529 -167.871100 10.011621
1.519608 -146.288600 10.215911
1.522687 -162.814800 8.471621
1.525767 -166.415500 8.025389
1.528846 -135.644500 11.951371
1.531925 -168.244300 16.422251
1.535004 -172.875400 15.970231
1.538083 -165.414900 10.556430
1.541162 -153.132300 13.259007
1.544242 -159.486200 12.563722
1.547321 -167.062900 15.445241
1.550400 -145.162600 12.950235
1.553479 -177.188100 9.787149
1.556558 -162.367600 11.729247
1.559638 -167.353400 13.576967
1.562717 -165.241800 15.754530
1.565796 -172.689300 10.651939
1.568875 -139.704000 13.212617
1.571954 -155.573900 21.039266
1.575033 -168.522100 14.860342
1.578113 -161.864300 9.851609
1.581192 -163.963400 8.428293
1.584271 -156.852900 9.519161
1.587350 -156.430600 8.117877
1.590429 -154.485200 8.503690
1.593508 -149.339600 9.358618
1.596588 -148.834800 8.174321
1.599667 -146.049000 8.478136
1.602746 -137.896500 8.000713
1.605825 -132.720900 9.876709
1.608904 -107.039600 7.612901
1.611983 -135.848200 7.655771
1.615063 -136.893500 8.036155
1.618142 -106.116500 8.819037
1.621221 -129.354900 6.540824
1.624300 -131.919100 8.376346
1.627379 -126.411500 8.511097
1.630458 -140.889900 8.223311
1.633538 -132.156900 9.798466
1.636617 -120.909900 7.762294
1.639696 -130.396600 6.812576
1.642775 -134.715200 10.396580
1.645854 -134.545300 8.305769
1.648933 -136.837600 10.551287
1.652013 -115.137300 11.313430
1.655092 -101.348000 9.809673
1.658171 -120.082500 10.463716
1.661250 -121.968700 9.523009
1.664329 -132.507400 12.203225
1.667408 -120.510500 14.561893
1.670487 -149.565900 14.469743
1.673567 -143.780100 12.781130
1.676646 -142.156900 13.760529
1.679725 -122.639400 10.994151
1.682804 -160.595600 15.931562
1.685883 -120.582200 14.269299
1.688962 -131.244200 12.288595
1.692042 -146.692900 12.607652
1.695121 -157.769200 9.808465
1.698200 -168.554200 8.723119
1.701279 -156.973300 11.136566
1.704358 -152.644500 12.160417
1.707437 -136.813900 13.770877
1.710517 -131.008400 9.739854
1.713596 -134.886100 10.624936
1.716675 -132.661800 9.450753
1.719754 -133.407700 9.754736
1.722833 -114.241200 9.634515
1.725912 -115.103600 8.539099
1.728992 -93.287800 7.669150
1.732071 -90.518800 8.356428
1.735150 -109.316400 9.416792
1.738229 -94.733300 8.760723
1.741308 -92.928600 6.958986
1.744387 -87.932600 7.654617
1.747467 -85.889000 8.581886
1.750546 -89.229000 6.464774
1.753625 -80.289900 6.528116
1.756704 -59.504200 8.506727
1.759783 -57.113200 5.069226
1.762862 -69.976300 6.538508
1.765942 -70.791700 5.914415
1.769021 -64.120400 5.947322
1.772100 -60.682000 4.530045
1.775179 -62.557900 4.998511
1.778258 -55.388500 5.436104
1.781338 -61.017300 4.843365
1.784417 -49.666400 4.924393
1.787496 -58.052700 5.670517
1.790575 -55.802400 5.033190
1.793654 -48.991800 4.973274
1.796733 -56.654000 5.571387
1.799813 -52.560300 6.997910
1.802892 -67.168800 7.925466
1.805971 -67.183200 6.652264
1.809050 -73.085400 7.493181
1.812129 -92.448900 7.477992
1.815208 -79.945500 10.752671
1.818288 -91.339200 10.326874
1.821367 -84.758600 7.782969
1.824446 -87.106400 8.699174
1.827525 -96.443600 10.099784
1.830604 -111.097700 9.835000
1.833683 -107.822100 8.398133
1.836763 -103.365700 9.060501
1.839842 -125.552500 10.000359
1.842921 -88.855500 11.959701
1.846000 -136.356400 11.462168
1.849079 -134.889500 10.494669
1.852158 -165.172600 16.490440
1.855238 -149.479500 10.600972
1.858317 -131.516600 11.265494
1.861396 -165.338800 9.132325
1.864475 174.552700 8.987153
1.867554 -169.801200 6.923827
1.870633 -175.181200 10.751903
1.873712 -174.168800 10.191245
1.876792 169.079400 11.218559
1.879871 162.411400 11.381892
1.882950 168.696200 12.231787
1.886029 168.971900 12.068221
1.889108 142.245000 13.258856
1.892187 162.518300 19.985381
1.895267 -152.820000 17.184935
1.898346 161.807000 15.411636
1.901425 118.553400 23.055165
1.904504 -33.546400 36.977761
1.907583 124.621000 37.115192
1.910662 114.084800 34.720431
1.913742 20.941700 17.256218
1.916821 59.419200 17.486697
1.919900 74.325300 20.813625
1.922979 64.044800 10.238618
1.926058 43.778800 15.240527
1.929137 66.171700 10.580478
1.932217 70.640500 14.775661
1.935296 80.764200 14.433759
1.938375 47.250000 14.708593
1.941454 78.374500 11.544581
1.944533 95.720700 11.417691
1.947612 90.705900 10.094775
1.950692 74.108900 29.631548
1.953771 169.034300 25.406690
1.956850 151.311300 67.257748
1.959929 95.012000 25.274168
1.963008 173.084500 28.324501
1.966087 119.576800 39.234095
1.969167 -128.915200 24.648849
1.972246 -174.765100 37.504310
1.975325 169.189500 18.581600
1.978404 143.967400 18.437925
1.981483 175.528600 14.677627
1.984563 -177.166700 27.118423
1.987642 -163.483800 32.198425
1.990721 161.435600 12.680616
1.993800 168.656300 25.647968
1.996879 -162.078000 14.390318
1.999958 172.511200 19.021199
2.003038 156.965000 16.917918
2.006117 164.281500 11.841515
2.009196 161.461200 18.486365
2.012275 179.095700 22.617523
2.015354 -147.647300 21.488447
2.018433 -140.426700 15.123657
2.021513 -92.762600 16.919842
2.024592 -113.825000 25.644287
2.027671 -124.684600 16.755468
2.030750 -97.082000 20.545953
2.033829 -91.919700 28.106953
2.036908 -83.444700 13.341343
2.039988 -79.530800 10.219381
2.043067 -92.279300 11.690646
2.046146 -51.540300 10.557376
2.049225 -59.661400 11.263321
2.052304 -74.771100 19.060125
2.055383 -52.333300 15.053245
2.058463 -59.866700 14.450449
2.061542 -50.625000 12.729982
2.064621 -26.276400 31.997004
2.067700 -38.588800 12.425409
2.070779 -33.126900 26.573979
2.073858 -79.653200 16.580375
2.076938 -42.440000 23.630152
2.080017 -63.710800 19.846750
2.083096 -72.805400 15.700252
2.086175 -34.818900 16.832364
2.089254 -76.306900 33.803605
2.092333 -40.574800 18.615683
2.095413 -45.317500 15.068548
2.098492 -43.214500 13.198323
2.101571 -47.230600 10.852109
2.104650 -38.258900 16.761913
2.107729 -26.850600 14.609285
2.110808 -14.629300 11.919787
2.113888 -20.143000 10.317082
2.116967 -7.868800 12.945918
2.120046 -34.625000 11.589389
2.123125 -2.636400 17.780255
2.126204 -38.967300 9.927773
2.129283 -21.718000 16.425168
2.132363 -2.343500 13.447872
2.135442 -14.776100 10.757437
2.138521 2.329900 13.689178
2.141600 -0.964700 7.690052
2.144679 -7.541400 10.008506
2.147758 -8.904700 8.513286
2.150838 14.556500 10.022899
2.153917 20.008400 7.697262
2.156996 41.725200 10.132565
2.160075 6.003600 9.330532
2.163154 49.225100 10.246247
2.166233 33.769000 9.189868
